'3ocv_680.cgd' 'Mar 23 2016 10:04' 'I'        120.    1  'TIME'   13  'RAW'
  Filename         Date            Scan       Mon    Prf  Base   #pts  Type    
Sample 3 10nmSiO2 15nmW in EC,dDEC, LiPF6          
 460    1  500  512 608 512   0   5.0000  0.00000 0.00000   0.00000    1 
 Collimation      Mosaic    Wavelength   T-Start   Incr.   H-field #Det    
  1       0.24000    0.01200    0.38400
  2       0.24000    0.01200    0.38400
  3       1.00000    0.05000    1.60000
  4       2.00000    0.10000    3.20000
  5       1.20000    0.06000    1.92000
  6       1.60000    0.08000    2.56000
 Mot:    Start       Step      End
     A4        A3        A1        A2        A5        A6     MIN      MONITOR      COUNTS 
           2           1        0.24        0.24         1.2         1.6 2.00      133486         229 
         2.1        1.05       0.252       0.252        1.26        1.68 2.00      138946         185 
         2.2         1.1       0.264       0.264        1.32        1.76 2.00      144471         130 
         2.3        1.15       0.276       0.276        1.38        1.84 2.00      150319          86 
         2.4         1.2       0.288       0.288        1.44        1.92 2.00      156579          67 
         2.5        1.25         0.3         0.3         1.5           2 2.00      160371          43 
         2.6         1.3       0.312       0.312        1.56        2.08 2.00      166332          60 
         2.7        1.35       0.324       0.324        1.62        2.16 2.00      171890          92 
         2.8         1.4       0.336       0.336        1.68        2.24 2.00      177450          89 
         2.9        1.45       0.348       0.348        1.74        2.32 2.00      182554         114 
           3         1.5        0.36        0.36         1.8         2.4 2.00      187176          98 
         3.1        1.55       0.372       0.372        1.86        2.48 2.00      192328          93 
         3.2         1.6       0.384       0.384        1.92        2.56 2.00      197995          78 
