'3ocv_655.cgd' 'Mar 23 2016 03:08' 'I'        120.    1  'TIME'   49  'RAW'
  Filename         Date            Scan       Mon    Prf  Base   #pts  Type    
Sample 3 10nmSiO2 15nmW in EC,dDEC, LiPF6          
 460    1  500  512 608 512   0   5.0000  0.00000 0.00000   0.00000    1 
 Collimation      Mosaic    Wavelength   T-Start   Incr.   H-field #Det    
  1       0.38400    0.01200    0.96000
  2       0.38400    0.01200    0.96000
  3       1.60000    0.05000    4.00000
  4       3.20000    0.10000    8.00000
  5       1.92000    0.06000    4.80000
  6       2.56000    0.08000    6.40000
 Mot:    Start       Step      End
     A4        A3        A1        A2        A5        A6     MIN      MONITOR      COUNTS 
         3.2         1.6       0.384       0.384        1.92        2.56 2.00      198682          65 
         3.3        1.65       0.396       0.396        1.98        2.64 2.00      202703          45 
         3.4         1.7       0.408       0.408        2.04        2.72 2.00      208396          68 
         3.5        1.75        0.42        0.42         2.1         2.8 2.00      213737          64 
         3.6         1.8       0.432       0.432        2.16        2.88 2.00      217896          87 
         3.7        1.85       0.444       0.444        2.22        2.96 2.00      224327         107 
         3.8         1.9       0.456       0.456        2.28        3.04 2.00      228761         128 
         3.9        1.95       0.468       0.468        2.34        3.12 2.00      233681         127 
           4           2        0.48        0.48         2.4         3.2 2.00      238919         131 
         4.1        2.05       0.492       0.492        2.46        3.28 2.00      243036         115 
         4.2         2.1       0.504       0.504        2.52        3.36 2.00      248136          94 
         4.3        2.15       0.516       0.516        2.58        3.44 2.00      254028          87 
         4.4         2.2       0.528       0.528        2.64        3.52 2.00      258739          66 
         4.5        2.25        0.54        0.54         2.7         3.6 2.00      262695          72 
         4.6         2.3       0.552       0.552        2.76        3.68 2.00      269112          71 
         4.7        2.35       0.564       0.564        2.82        3.76 2.00      272321          85 
         4.8         2.4       0.576       0.576        2.88        3.84 2.00      277204          90 
         4.9        2.45       0.588       0.588        2.94        3.92 2.00      282522          90 
           5         2.5         0.6         0.6           3           4 2.00      287439         101 
         5.1        2.55       0.612       0.612        3.06        4.08 2.00      291972          88 
         5.2         2.6       0.624       0.624        3.12        4.16 2.00      297864          93 
         5.3        2.65       0.636       0.636        3.18        4.24 2.00      302036          86 
         5.4         2.7       0.648       0.648        3.24        4.32 2.00      307865          72 
         5.5        2.75        0.66        0.66         3.3         4.4 2.00      311342          94 
         5.6         2.8       0.672       0.672        3.36        4.48 2.00      317054          84 
         5.7        2.85       0.684       0.684        3.42        4.56 2.00      322215          72 
         5.8         2.9       0.696       0.696        3.48        4.64 2.00      326306          76 
         5.9        2.95       0.708       0.708        3.54        4.72 2.00      331487          81 
           6           3        0.72        0.72         3.6         4.8 2.00      336543          91 
         6.1        3.05       0.732       0.732        3.66        4.88 2.00      342787         101 
         6.2         3.1       0.744       0.744        3.72        4.96 2.00      345888          88 
         6.3        3.15       0.756       0.756        3.78        5.04 2.00      350580         102 
         6.4         3.2       0.768       0.768        3.84        5.12 2.00      355255         107 
         6.5        3.25        0.78        0.78         3.9         5.2 2.00      360438          88 
         6.6         3.3       0.792       0.792        3.96        5.28 2.00      364306          67 
         6.7        3.35       0.804       0.804        4.02        5.36 2.00      369494          93 
         6.8         3.4       0.816       0.816        4.08        5.44 2.00      375606          91 
         6.9        3.45       0.828       0.828        4.14        5.52 2.00      380798          98 
           7         3.5        0.84        0.84         4.2         5.6 2.00      386112          97 
         7.1        3.55       0.852       0.852        4.26        5.68 2.00      390297          90 
         7.2         3.6       0.864       0.864        4.32        5.76 2.00      394885         103 
         7.3        3.65       0.876       0.876        4.38        5.84 2.00      399333         102 
         7.4         3.7       0.888       0.888        4.44        5.92 2.00      403729         120 
         7.5        3.75         0.9         0.9         4.5           6 2.00      408400         110 
         7.6         3.8       0.912       0.912        4.56        6.08 2.00      413751          99 
         7.7        3.85       0.924       0.924        4.62        6.16 2.00      419394          99 
         7.8         3.9       0.936       0.936        4.68        6.24 2.00      424004         102 
         7.9        3.95       0.948       0.948        4.74        6.32 2.00      429270          96 
           8           4        0.96        0.96         4.8         6.4 2.00      432525         107 
