'bare_562.cgd' 'Mar 21 2016 19:18' 'I'         60.    1  'TIME'   26  'RAW'
  Filename         Date            Scan       Mon    Prf  Base   #pts  Type    
sample3 W 15nmon SiO210nm in Ar                    
 460    1  500  512 608 512   0   5.0000  0.00000 0.00000   0.00000    1 
 Collimation      Mosaic    Wavelength   T-Start   Incr.   H-field #Det    
  1       0.20000    0.00800    0.40000
  2       0.20000    0.00800    0.40000
  3       0.50000    0.02000    1.00000
  4       1.00000    0.04000    2.00000
  5       0.60000    0.02400    1.20000
  6       0.80000    0.03200    1.60000
 Mot:    Start       Step      End
     A4        A3        A1        A2        A5        A6     MIN      MONITOR      COUNTS 
           1         0.5         0.2         0.2         0.6         0.8 1.00       56136        1433 
        1.04        0.52       0.208       0.208       0.624       0.832 1.00       57009         969 
        1.08        0.54       0.216       0.216       0.648       0.864 1.00       60081         581 
        1.12        0.56       0.224       0.224       0.672       0.896 1.00       61336         350 
        1.16        0.58       0.232       0.232       0.696       0.928 1.00       63045         150 
         1.2         0.6        0.24        0.24        0.72        0.96 1.00       65074          89 
        1.24        0.62       0.248       0.248       0.744       0.992 1.00       67073          93 
        1.28        0.64       0.256       0.256       0.768       1.024 1.00       68607         156 
        1.32        0.66       0.264       0.264       0.792       1.056 1.00       71244         268 
        1.36        0.68       0.272       0.272       0.816       1.088 1.00       73378         399 
         1.4         0.7        0.28        0.28        0.84        1.12 1.00       74766         524 
        1.44        0.72       0.288       0.288       0.864       1.152 1.00       76673         693 
        1.48        0.74       0.296       0.296       0.888       1.184 1.00       78202         780 
        1.52        0.76       0.304       0.304       0.912       1.216 1.00       80725         954 
        1.56        0.78       0.312       0.312       0.936       1.248 1.00       82416        1077 
         1.6         0.8        0.32        0.32        0.96        1.28 1.00       84267        1166 
        1.64        0.82       0.328       0.328       0.984       1.312 1.00       86278        1253 
        1.68        0.84       0.336       0.336       1.008       1.344 1.00       87389        1209 
        1.72        0.86       0.344       0.344       1.032       1.376 1.00       89626        1180 
        1.76        0.88       0.352       0.352       1.056       1.408 1.00       91788        1185 
         1.8         0.9        0.36        0.36        1.08        1.44 1.00       93423        1056 
        1.84        0.92       0.368       0.368       1.104       1.472 1.00       94597         983 
        1.88        0.94       0.376       0.376       1.128       1.504 1.00       96994         923 
        1.92        0.96       0.384       0.384       1.152       1.536 1.00       98197         834 
        1.96        0.98       0.392       0.392       1.176       1.568 1.00      100017         718 
           2           1         0.4         0.4         1.2         1.6 1.00      101353         590 
