'4elt_782.cgd' 'Mar 24 2016 07:05' 'I'         60.    1  'TIME'   11  'RAW'
  Filename         Date            Scan       Mon    Prf  Base   #pts  Type    
Sample 4 10nmSiO2 15nmW in EC,dDEC, LiPF6 with W C 
 460    1  500  512 608 512   0   5.0000  0.00000 0.00000   0.00000    1 
 Collimation      Mosaic    Wavelength   T-Start   Incr.   H-field #Det    
  1       0.12000    0.01200    0.24000
  2       0.12000    0.01200    0.24000
  3       0.50000    0.05000    1.00000
  4       1.00000    0.10000    2.00000
  5       0.60000    0.06000    1.20000
  6       0.80000    0.08000    1.60000
 Mot:    Start       Step      End
     A4        A3        A1        A2        A5        A6     MIN      MONITOR      COUNTS 
           1         0.5        0.12        0.12         0.6         0.8 1.00       38333         274 
         1.1        0.55       0.132       0.132        0.66        0.88 1.00       40829         266 
         1.2         0.6       0.144       0.144        0.72        0.96 1.00       43683         201 
         1.3        0.65       0.156       0.156        0.78        1.04 1.00       46464         157 
         1.4         0.7       0.168       0.168        0.84        1.12 1.00       49297          96 
         1.5        0.75        0.18        0.18         0.9         1.2 1.00       52265          81 
         1.6         0.8       0.192       0.192        0.96        1.28 1.00       54973          54 
         1.7        0.85       0.204       0.204        1.02        1.36 1.00       58081          38 
         1.8         0.9       0.216       0.216        1.08        1.44 1.00       61148          42 
         1.9        0.95       0.228       0.228        1.14        1.52 1.00       63856          45 
           2           1        0.24        0.24         1.2         1.6 1.00       67003          48 
